wavelength [nm]	Intensity [pJ/nm]	Phase [rad]
1330.323	2.5381105E-31	4.712389
1331.0429	9.3291592E-30	2.9487083
1331.7635	1.1661296E-29	5.7827445
1332.485	2.3818372E-30	2.896614
1333.2072	4.4786021E-30	2.3561945
1333.9302	2.7960928E-30	0.46364761
1334.654	2.3741019E-30	0.24497866
1335.3785	1.2555139E-30	1.5707963
1336.1039	4.4592037E-30	3.9269908
1336.83	1.3919877E-31	4.712389
1337.5569	3.4761877E-32	7.8539816
1338.2847	3.2727448E-30	10.027065
1339.0132	7.0239774E-31	10.995574
1339.7425	3.1183699E-31	10.995574
1340.4726	8.6527053E-33	10.995574
1341.2035	2.3509714E-30	12.811349
1341.9352	2.4714407E-30	9.755874
1342.6677	2.313505E-30	9.6401357
1343.401	5.513615E-31	10.995574
1344.1351	4.7524513E-30	10.995574
1344.87	3.4384853E-30	10.995574
1345.6057	5.6329513E-30	10.320833
1346.3422	2.1958205E-30	12.566371
1347.0795	2.7417718E-30	9.8884256
1347.8177	1.2324463E-30	10.995574
1348.5566	3.4197112E-30	10.995574
1349.2963	2.7327701E-30	13.030018
1350.0369	1.625601E-30	10.37743
1350.7783	1.2355709E-30	11.722217
1351.5205	8.5118223E-31	10.068279
1352.2635	2.2106425E-30	11.51472
1353.0073	1.3589E-31	14.137167
1353.7519	5.5144599E-31	11.51472
1354.4974	3.6694363E-30	11.610237
1355.2437	8.2111648E-31	13.718943
1355.9908	4.3970123E-31	16.690757
1356.7387	1.0811485E-30	16.493361
1357.4874	7.1568189E-30	18.247269
1358.237	6.1523288E-31	19.208327
1358.9874	5.3878674E-31	18.849556
1359.7387	2.6909578E-31	18.064158
1360.4907	3.5699781E-30	17.523738
1361.2436	1.8669217E-31	17.837359
1361.9974	3.017295E-31	18.849556
1362.7519	2.185117E-30	17.659266
1363.5073	2.5590235E-30	18.309136
1364.2636	1.1741963E-30	15.27261
1365.0207	1.2620737E-30	13.030018
1365.7786	2.2224578E-30	10.411818
1366.5373	9.5330149E-31	11.913524
1367.297	2.690527E-30	12.255609
1368.0574	5.381596E-30	13.196611
1368.8187	2.4528835E-30	11.793825
1369.5809	1.4572773E-30	11.794305
1370.3439	3.5033003E-31	9.4632206
1371.1077	2.4824016E-31	8.327833
1371.8724	2.6539334E-30	5.7367624
1372.638	9.0917031E-31	5.451538
1373.4044	9.4868323E-31	5.5044116
1374.1716	1.1524512E-30	6.3036958
1374.9398	2.0517375E-30	4.9201688
1375.7087	1.0549197E-30	4.8323525
1376.4786	2.25055E-30	3.1383741
1377.2493	6.1148309E-31	1.2875076
1378.0209	1.432261E-30	-0.71349553
1378.7933	2.6569965E-30	-0.052036315
1379.5666	3.6761648E-31	-0.46364761
1380.3408	4.9470571E-30	1.152572
1381.1158	1.2063389E-30	-0.16514868
1381.8917	9.9329811E-31	1.6614562
1382.6685	1.4720083E-30	2.3036114
1383.4461	3.5174763E-30	0.61466295
1384.2247	6.8566399E-30	0.85843873
1385.0041	3.8195927E-30	0.89965249
1385.7844	3.9063739E-31	0.52807445
1386.5655	1.708377E-30	0.46364761
1387.3476	3.2493261E-30	0.074859848
1388.1305	5.4111173E-31	-2.5959376
1388.9143	1.4557767E-31	-2.0607537
1389.699	3.7455249E-30	0.80179014
1390.4846	2.1234506E-30	-0.5325041
1391.2711	1.5743467E-30	-1.5707963
1392.0584	3.7107749E-31	-1.2722974
1392.8467	4.0471803E-30	-4.34841
1393.6358	8.2865757E-31	-6.4685333
1394.4259	2.3108661E-30	-4.2224317
1395.2168	1.0083604E-30	-4.1490727
1396.0086	3.6459254E-30	-4.9006105
1396.8014	7.7298349E-31	-5.1306133
1397.595	5.4127008E-31	-3.3865713
1398.3896	1.7690555E-31	-5.724586
1399.185	6.4328368E-31	-4.712389
1399.9813	1.1740457E-30	-6.1180366
1400.7786	1.356936E-30	-3.2564693
1401.5768	5.4809242E-31	-2.1421338
1402.3758	3.6682332E-30	-4.3318826
1403.1758	2.1370344E-30	-2.5072098
1403.9767	1.9571247E-30	-3.125721
1404.7785	7.3369972E-31	-0.63831981
1405.5813	1.230126E-30	1.5907937
1406.3849	8.3519586E-31	-0.88847977
1407.1895	2.2966166E-31	0.98279372
1407.995	4.122319E-31	-0.80978357
1408.8014	1.2240193E-30	1.2870022
1409.6087	2.4892495E-31	-0.2234766
1410.417	7.5080407E-31	2.2296024
1411.2262	4.6462818E-31	-0.86568498
1412.0363	1.2721496E-30	1.9204035
1412.8473	4.8692928E-31	0.88617916
1413.6593	4.6144984E-31	0.22923193
1414.4722	4.8568977E-31	-0.32175055
1415.2861	2.5736218E-30	0.7951066
1416.1009	4.7003604E-32	-1.9890207
1416.9166	8.9833269E-31	-3.522099
1417.7333	5.5887745E-31	-5.793228
1418.5509	1.8330917E-30	-4.0883659
1419.3694	2.4611605E-31	-5.7997383
1420.1889	1.3104621E-31	-4.4674103
1421.0094	1.2319523E-31	-1.5707963
1421.8308	9.8442345E-31	-3.9269908
1422.6531	 0	-3.1496171
1423.4764	1.2276858E-31	-4.712389
1424.3007	7.664158E-31	-4.712389
1425.1259	1.2248456E-31	-3.1415927
1425.952	4.7790106E-32	-3.7850938
1426.7791	2.4832791E-30	-6.8057708
1427.6072	2.588512E-30	-4.57625
1428.4363	1.7144649E-30	-4.0688879
1429.2663	4.3625894E-31	-2.4146009
1430.0972	4.3788408E-30	-3.9269908
1430.9292	1.570171E-30	-4.3080789
1431.7621	1.6287315E-30	-3.8303346
1432.5959	1.3024273E-30	-4.1824862
1433.4308	2.4213876E-30	-3.4633432
1434.2666	3.6226625E-30	-0.53550467
1435.1034	1.8273529E-30	-3.5715576
1435.9412	4.0333861E-31	-1.5707963
1436.7799	2.5459854E-31	-2.9084726
1437.6197	1.3069055E-30	0.036826428
1438.4604	2.654995E-31	0.66263149
1439.3021	1.9124713E-30	1.0458601
1440.1447	6.5116329E-32	3.4265168
1440.9884	1.2119829E-30	1.8740242
1441.8331	1.613688E-30	4.6462665
1442.6787	5.3866543E-31	4.057572
1443.5254	1.6303829E-30	4.3196899
1444.373	6.9927104E-30	3.1252689
1445.2216	3.7861702E-31	3.796368
1446.0713	9.5913141E-31	3.0534334
1446.9219	4.9764299E-31	4.6530721
1447.7735	7.808204E-31	7.0320868
1448.6262	6.6680317E-32	4.712389
1449.4798	9.7617288E-31	3.4814296
1450.3345	1.4546733E-30	5.3619692
1451.1901	7.4884645E-31	7.3147293
1452.0468	4.7215682E-31	8.2152619
1452.9044	8.6867827E-31	8.1174624
1453.7631	8.6765237E-31	4.9758698
1454.6228	1.9199073E-30	2.6360254
1455.4836	8.3710949E-31	4.8451981
1456.3453	3.5342871E-32	4.6571083
1457.2081	1.5980433E-30	5.2476583
1458.0719	2.6554941E-30	6.7577338
1458.9367	1.3869584E-30	4.9885633
1459.8025	1.4334672E-30	3.368758
1460.6694	2.3337144E-31	3.1138716
1461.5373	3.5533844E-30	4.8186367
1462.4062	1.5792924E-30	5.9926754
1463.2762	1.4309988E-31	3.2362126
1464.1472	5.1623781E-31	0.64483691
1465.0192	7.6271149E-31	-2.2813007
1465.8923	9.0009286E-32	-4.3774279
1466.7664	9.6240559E-31	-2.509986
1467.6415	1.245941E-31	-2.0524492
1468.5177	2.7789253E-31	-2.9000146
1469.395	3.4306219E-31	0.20526363
1470.2733	6.4893428E-31	-1.7644975
1471.1526	3.493281E-31	0.20421957
1472.0331	8.0971961E-32	2.9846296
1472.9145	2.129144E-30	0.27874872
1473.797	3.2713823E-32	-1.741879
1474.6806	3.2489808E-31	-4.3716111
1475.5652	3.4710387E-31	-1.3054383
1476.4509	5.3310515E-31	-0.59256236
1477.3377	2.6695883E-30	-2.6396593
1478.2255	2.132881E-30	-5.4977871
1479.1144	2.3707964E-30	-3.5378865
1480.0044	4.7557237E-31	-5.7382988
1480.8954	4.4293478E-31	-2.7715302
1481.7875	6.2923512E-31	-3.4584005
1482.6807	6.9257793E-31	-2.8806201
1483.5749	2.8094875E-31	-1.5050687
1484.4703	4.0696311E-31	-2.4816321
1485.3667	1.4472924E-30	-3.3569504
1486.2642	1.5554929E-30	-3.4846166
1487.1628	7.4692969E-31	-6.0382066
1488.0625	4.7745714E-31	-6.0382066
1488.9632	2.2020618E-30	-4.4263375
1489.8651	8.1952043E-31	-6.8711879
1490.768	3.3930433E-30	-5.5942609
1491.6721	1.5442349E-30	-7.5109577
1492.5772	5.8100308E-31	-4.5472403
1493.4834	1.2721252E-31	-3.5003633
1494.3908	4.6820034E-31	-4.0566934
1495.2992	1.5471827E-31	-2.5829933
1496.2088	1.1116626E-30	-2.6248975
1497.1194	2.7196324E-30	-3.5713549
1498.0312	5.0230105E-32	-1.9513027
1498.9441	7.3562374E-30	-0.19288431
1499.8581	4.2297908E-30	-0.24497866
1500.7732	0.0080943257	-0.49582107
1501.6894	0.034645969	-0.685257
1502.6067	0.0034281124	-0.77129437
1503.5252	0.046258484	-0.69261866
1504.4448	0.034565931	-0.43710712
1505.3655	0.030584886	-0.7185993
1506.2873	0.02611316	-0.37999237
1507.2103	0.099566534	-0.23292615
1508.1344	0.031171497	-0.48710634
1509.0597	0.0010612412	-0.4242711
1509.986	0.041552763	-0.71658139
1510.9135	0.0015224599	-0.52431645
1511.8422	0.064581742	-0.90498016
1512.772	0.1205545	-1.1127509
1513.7029	0.05616781	-0.76927122
1514.635	0.052309885	-1.0373922
1515.5682	0.010582328	-1.2016938
1516.5026	0.087282186	-1.323667
1517.4381	0.12466865	-1.0809166
1518.3748	0.11388924	-1.138283
1519.3127	0.24961	-0.64864285
1520.2517	0.26588371	-0.21764873
1521.1919	0.38972538	0.062346159
1522.1332	0.33641871	0.42650464
1523.0757	0.45885775	0.40632787
1524.0193	0.71387707	-0.11184831
1524.9642	0.75269206	-0.43277009
1525.9102	0.9765939	-0.65660396
1526.8574	1.4964382	-0.6532077
1527.8057	1.621789	-0.46827683
1528.7553	2.5399203	0.035037358
1529.706	3.1070891	0.66359163
1530.6579	4.942236	0.70960475
1531.611	6.5409305	0.46344849
1532.5653	13.448764	-0.0071016562
1533.5207	27.713545	-0.41798496
1534.4774	63.587428	-0.60154144
1535.4352	125.13504	-0.66260681
1536.3943	158.78959	-0.68937528
1537.3545	152.68928	-0.64856727
1538.316	128.05922	-0.52258096
1539.2786	117.46367	-0.29845036
1540.2425	161.65264	-0.11146124
1541.2075	271.3767	-0.017376055
1542.1738	422.78987	0.013665915
1543.1413	564.28206	0.012950885
1544.11	603.67764	0.0071175743
1545.0799	567.04239	0.010114523
1546.0511	488.80259	0.032402807
1547.0234	434.83323	0.081631441
1547.997	373.51682	0.13316703
1548.9718	317.91931	0.21898709
1549.9478	257.97153	0.26817391
1550.9251	217.83825	0.28527074
1551.9036	186.92093	0.24047722
1552.8834	184.60384	0.18316961
1553.8643	177.24942	0.12292575
1554.8465	195.87088	0.084743906
1555.83	209.36549	0.071995258
1556.8147	213.17552	0.064521956
1557.8007	232.53071	0.062725421
1558.7879	259.23218	0.04608642
1559.7763	256.37002	0.042413999
1560.766	271.81978	0.029898
1561.757	292.13836	0.023848445
1562.7492	283.44592	0.027471034
1563.7427	304.65477	0.04150343
1564.7374	261.63534	0.056000192
1565.7334	217.06279	0.076666884
1566.7307	192.20891	0.086430028
1567.7293	167.57322	0.11888846
1568.7291	147.66772	0.12634137
1569.7302	101.65284	0.078482359
1570.7326	65.218066	0.020839365
1571.7362	53.311039	-0.15518046
1572.7412	49.621728	-0.23398413
1573.7474	46.617788	-0.28683971
1574.7549	36.757587	-0.29128886
1575.7638	24.44777	-0.21162679
1576.7739	15.496517	-0.2664267
1577.7853	20.062976	-0.25244015
1578.798	31.431506	-0.22755061
1579.812	38.865013	-0.17591218
1580.8273	38.266451	-0.043988697
1581.8439	35.032204	0.18009457
1582.8618	29.651767	0.4744458
1583.881	23.154796	0.87038015
1584.9016	15.933322	1.2933273
1585.9234	10.931847	1.7548252
1586.9466	7.7897207	2.289501
1587.9711	4.6467171	2.9191799
1588.9969	2.7407225	3.7244112
1590.0241	1.7228361	4.8332599
1591.0525	0.96803366	5.728739
1592.0823	0.47489171	6.3461442
1593.1135	0.36864471	7.1500421
1594.146	0.17661029	7.6267118
1595.1798	0.15376543	8.0357595
1596.2149	0.14284127	7.6481113
1597.2514	0.086403704	7.1634819
1598.2893	0.062623865	6.9412196
1599.3285	0.024243488	7.0943974
1600.3691	1.4007484E-30	8.3563154
1601.411	1.9026E-30	10.584978
1602.4542	2.5121578E-30	12.543566
1603.4988	6.4114602E-31	11.638267
1604.5448	3.2680175E-30	9.4052196
1605.5922	2.6910544E-31	8.2144677
1606.6409	1.9266338E-30	10.055924
1607.691	5.6784827E-31	7.8966269
1608.7425	2.9102237E-30	9.4545987
1609.7953	1.655179E-30	9.9929502
1610.8495	6.5310701E-31	9.7162348
1611.9051	2.2888655E-31	9.6697566
1612.9621	2.6055892E-30	9.1333212
1614.0205	3.1631922E-30	7.8974325
1615.0803	2.8908218E-30	10.113702
1616.1414	8.1551067E-31	9.076007
1617.204	2.3125323E-30	8.8930539
1618.2679	3.9926316E-31	8.7690823
1619.3333	2.1493311E-31	6.2000441
1620.4	3.2715653E-31	9.081754
1621.4682	1.550838E-30	9.5797747
1622.5378	2.9473595E-30	8.8709236
1623.6087	6.7274105E-31	9.7835486
1624.6811	2.928912E-30	9.081754
1625.7549	4.8592645E-30	9.8650835
1626.8302	9.6344561E-31	8.5287226
1627.9068	1.163113E-30	9.3180423
1628.9849	1.5526714E-30	9.6101259
1630.0644	1.7174713E-30	10.03909
1631.1454	4.2658474E-31	9.0660073
1632.2278	1.1803065E-30	9.6014868
1633.3116	5.1870415E-31	8.8661786
1634.3968	8.9052108E-31	9.6697566
1635.4835	2.3250668E-32	10.995574
1636.5717	2.1260593E-30	8.8440216
1637.6613	2.3710622E-30	9.5736679
1638.7523	2.7094866E-30	10.012781
1639.8448	1.3717296E-30	9.195546
1640.9388	2.2591101E-30	9.7865072
1642.0342	7.8999432E-31	9.076007
1643.1311	2.4193678E-30	10.47189
1644.2294	4.0616399E-31	7.4569022
1645.3293	6.8417165E-31	7.5032537
1646.4305	5.0652764E-31	8.9254312
1647.5333	1.1355665E-30	10.888839
1648.6376	2.2452106E-31	11.494921
1649.7433	1.4638579E-32	10.320833
1650.8505	7.2025071E-31	9.9880942
1651.9592	1.3264029E-30	10.035504
1653.0694	1.6475096E-30	9.3806889
1654.1811	2.0960389E-30	8.8385804
1655.2942	6.6753604E-31	9.9038883
1656.4089	9.1809914E-31	10.09185
1657.5251	1.0288956E-30	11.182061
1658.6428	8.1663864E-31	9.7202188
1659.762	2.6755421E-30	12.190129
1660.8827	1.5253089E-31	10.380911
1662.0049	2.926891E-31	10.012781
1663.1286	9.7946497E-31	8.2837439
1664.2539	5.9081396E-31	5.463318
1665.3807	1.6811391E-30	5.4006578
1666.509	9.5170294E-32	4.9573676
1667.6388	8.050564E-31	7.8539816
1668.7702	7.146357E-31	5.4977871
1669.9031	1.4273328E-30	3.1415927
1671.0375	8.9087214E-32	1.5707963
1672.1735	2.0017398E-31	-1.5707963
1673.311	4.4422647E-31	-4.2487414
1674.4501	3.4657991E-32	-5.6396842
1675.5908	1.7562396E-30	-5.8792152
1676.7329	1.0801151E-30	-7.6741281
1677.8767	2.6563958E-30	-7.4311277
1679.022	3.9411986E-31	-5.4454842
1680.1689	3.1723742E-30	-7.0685835
1681.3173	2.537413E-30	-7.5874694
1682.4673	1.6766294E-30	-7.1496159
1683.6189	8.8861974E-30	-6.5681094
1684.7721	1.7528125E-30	-6.6049359
1685.9268	2.4980915E-30	-7.1898802
1687.0831	1.6930665E-30	-6.9211734
1688.2411	1.2792624E-30	-4.712389
1689.4006	1.0470002E-30	-7.4336753
1690.5617	3.4069853E-30	-7.0023283
1691.7244	4.3714376E-30	-6.5565001
1692.8887	7.6864184E-31	-7.1169413
1694.0546	1.6964752E-31	-5.2422918
1695.2221	8.3432899E-30	-6.706796
1696.3912	5.9334995E-30	-6.3842378
1697.5619	1.1978446E-30	-3.8988386
1698.7343	2.0199294E-31	-6.6758844
1699.9082	1.1525487E-30	-6.2490162
1701.0838	1.4890559E-30	-7.5072738
1702.2611	6.921579E-31	-6.1950261
1703.4399	2.4807653E-30	-6.9811616
1704.6204	3.7414117E-30	-6.6704041
1705.8025	4.8089782E-32	-7.8539816
1706.9863	1.6054824E-31	-9.7646149
1708.1717	1.8926607E-30	-8.321002
1709.3587	2.6768765E-30	-7.3501519
1710.5474	5.205868E-31	-7.5641851
1711.7378	2.6562833E-31	-7.4427215
1712.9298	2.6525876E-31	-10.584314
1714.1235	1.0832652E-30	-12.414007
1715.3188	9.6141071E-31	-14.242205
1716.5159	1.4731754E-30	-11.244804
1717.7145	6.7314757E-31	-14.096061
1718.9149	5.4142978E-31	-11.764057
1720.1169	3.2717354E-30	-13.624344
1721.3207	3.7794196E-31	-10.715845
1722.5261	8.1994033E-31	-13.667912
1723.7332	1.7257731E-30	-11.846678
1724.942	2.5539858E-30	-13.67394
1726.1524	4.7180618E-31	-11.478949
1727.3646	4.4458626E-31	-14.326964
1728.5785	1.0261782E-30	-11.97936
1729.7941	1.0474913E-30	-12.951275
1731.0114	2.2173257E-30	-11.695352
1732.2304	9.0282061E-31	-12.361765
1733.4512	1.7104926E-30	-11.547172
1734.6736	1.7075856E-30	-13.142706
1735.8978	1.9554806E-31	-11.666709
1737.1237	1.7376765E-32	-13.445331
1738.3514	6.3652428E-31	-16.222606
1739.5808	1.0227888E-31	-13.561503
1740.8119	2.6572656E-30	-11.569911
1742.0448	1.8702894E-30	-12.266365
1743.2794	1.8693591E-30	-10.793929
1744.5158	8.4425214E-31	-12.501883
1745.7539	2.3735187E-30	-11.901142
1746.9938	1.4384029E-31	-11.780972
1748.2354	2.3013764E-30	-11.644226
1749.4788	3.4034958E-31	-13.111257
1750.724	7.3120776E-31	-12.239165
1751.971	8.3158243E-31	-11.885705
1753.2197	6.0799153E-31	-10.249785
1754.4702	3.2946505E-31	-8.1575452
1755.7225	4.7597167E-30	-10.522373
1756.9766	4.2678927E-30	-10.13876
1758.2325	1.1114949E-30	-9.7678019
1759.4902	1.0157402E-30	-9.6014868
1760.7496	2.0060076E-32	-10.995574
1762.0109	4.1064304E-31	-9.5354352
1763.274	1.1451534E-30	-9.5573295
1764.5389	1.2234083E-30	-8.3176292
1765.8056	1.2216536E-30	-10.531927
1767.0742	1.95433E-31	-8.9254312
1768.3445	1.8408954E-30	-10.566796
1769.6167	1.4658829E-30	-9.5707902
1770.8907	1.1154928E-32	-10.995574
1772.1666	1.5349985E-30	-10.320833
1773.4443	1.3251613E-30	-10.873113
1774.7238	6.0840554E-31	-8.7992929
1776.0052	1.6318841E-30	-10.773925
1777.2885	2.854828E-30	-10.268932
1778.5736	1.1120203E-30	-9.7991116
1779.8605	1.850279E-30	-8.8224906
1781.1493	9.6798491E-31	-8.645669
1782.44	1.3555568E-30	-9.9961154
1783.7326	3.5305808E-31	-7.8539816
1785.027	1.805427E-31	-6.448334
1786.3233	6.3341888E-32	-4.1243864
1787.6215	7.9792209E-31	-5.6084444
1788.9216	1.3032415E-30	-5.7375303
1790.2236	3.9295087E-31	-4.712389
1791.5275	3.8753491E-32	-7.0685835
1792.8333	8.7673029E-31	-4.1656001
1794.1409	1.29567E-30	-4.9277467
1795.4505	4.4613125E-31	-6.1265834
1796.762	3.1906014E-32	-8.9176795
1798.0755	1.9963232E-30	-11.106232
1799.3908	9.0816706E-31	-12.094593
1800.7081	8.022497E-31	-10.14179
1802.0273	6.3798768E-31	-9.3380396
1803.3484	8.9044028E-31	-10.848496
1804.6715	2.3899236E-31	-9.9833773
1805.9965	7.7461759E-32	-7.3348355
1807.3235	5.0573727E-31	-9.0262555
1808.6524	1.0079093E-30	-10.788078
1809.9832	3.4407783E-32	-12.946877
1811.3161	2.6562383E-30	-10.064055
1812.6509	3.1822314E-31	-11.65127
1813.9876	1.0961933E-30	-10.590683
1815.3264	5.8975058E-31	-11.175428
1816.6671	4.1928286E-31	-12.007771
1818.0098	8.9671663E-32	-9.8371884
1819.3545	3.0061672E-31	-12.566371
1820.7011	9.1927732E-31	-12.566371
1822.0498	3.1846098E-31	-14.382146
1823.4005	8.7169417E-32	-16.093846
1824.7531	7.4710138E-32	-18.849556
1826.1078	3.7299667E-31	-18.385908
1827.4645	5.9590889E-31	-21.20575
1828.8232	5.9502377E-31	-21.20575
1830.184	2.9706965E-31	-23.561945
1831.5467	2.9662775E-31	-25.132741
1832.9115	7.4046543E-32	-26.703538
1834.2783	4.7504029E-30	-25.070322
1835.6472	1.2100543E-30	-22.146145
1837.0181	1.493034E-30	-19.325625
1838.3911	7.3605791E-32	-20.420352
